* Measurement data measured by REW V5.20
* Source: USB-C to 3.5mm Headphone Jack Adapter, USB-C to 3.5mm Headphone Jack Adapter, 0, volume: 0.663. Timing signal peak level -6.5 dBFS, measurement signal peak level -5.0 dBFS
* Format: 256k Log Swept Sine, 1 sweep at -12.0 dBFS using an acoustic timing reference
* Dated: Mar 27, 2021 11:33:13 AM
* REW Settings:
*  C-weighting compensation: Off
*  Target level: 75.0 dB
* Note: Delay -0.1428 ms (-49 mm, -1.93 in) using estimated IR delay relative to Acoustic reference on USB-C to 3.5mm Headphone Jack Adapter L with no timing offset
* Measurement: Tin Hifi P1
* Smoothing: 1/12 octave
* Frequency Step: 1/48 octave
* Start Frequency: 20.300 Hz
*
* Freq(Hz)	SPL(dB)	Phase(degrees)
20.299999	98.564766	-104.7006
20.600000	98.602074	-104.8274
20.900000	98.701607	-105.1553
21.200001	98.808899	-105.5998
21.400000	98.876968	-105.9546
21.799999	98.997177	-106.7522
22.000000	99.049133	-107.1666
22.400000	99.143082	-107.9745
22.700001	99.213303	-108.5349
23.000000	99.289429	-109.0605
23.299999	99.373749	-109.5689
23.600000	99.464821	-110.0784
24.000000	99.589584	-110.7707
24.299999	99.680435	-111.2894
24.700001	99.794220	-111.9569
25.000000	99.874748	-112.4337
25.400000	99.978638	-113.0525
25.799999	100.080956	-113.6866
26.200001	100.181366	-114.3573
26.500000	100.254501	-114.8759
26.900000	100.348930	-115.5518
27.200001	100.418152	-116.0226
27.600000	100.509216	-116.5841
28.000000	100.597122	-117.0795
28.500000	100.693474	-117.6460
29.000000	100.762634	-118.1736
29.500000	100.806122	-118.6313
30.000000	100.850021	-119.0066
30.400000	100.908752	-119.3092
30.700001	100.974243	-119.6029
31.100000	101.088181	-120.1614
31.500000	101.217339	-120.9431
32.000000	101.367729	-122.1158
32.500000	101.481430	-123.1947
33.000000	101.562004	-123.8018
33.500000	101.635063	-123.7607
34.000000	101.725052	-123.2023
34.500000	101.833519	-122.4766
35.000000	101.937126	-122.0023
35.500000	102.005196	-122.0829
36.000000	102.018684	-122.8046
36.500000	101.982834	-124.0296
37.000000	101.930756	-125.4700
37.500000	101.909027	-126.8408
38.200001	101.982056	-128.3855
38.700001	102.090973	-129.2222
39.500000	102.256454	-130.1992
40.000000	102.317627	-130.6160
40.599998	102.357918	-131.0152
41.200001	102.392776	-131.4630
41.799999	102.441246	-132.0466
42.500000	102.514313	-132.8025
43.099998	102.579605	-133.3649
43.700001	102.634941	-133.7861
44.400002	102.677109	-134.1350
45.000000	102.698448	-134.3742
45.500000	102.716064	-134.5803
46.200001	102.754333	-134.9555
46.799999	102.802414	-135.4096
47.500000	102.867538	-136.1030
48.200001	102.930054	-136.9166
48.700001	102.968567	-137.5128
49.400002	103.013275	-138.2705
50.000000	103.046356	-138.7958
50.799999	103.086464	-139.3463
51.500000	103.113998	-139.7843
52.200001	103.131447	-140.2402
53.000000	103.147369	-140.7721
53.799999	103.171585	-141.2793
54.500000	103.200554	-141.6781
55.200001	103.231842	-142.0187
56.000000	103.265869	-142.3304
57.000000	103.304199	-142.6346
58.000000	103.328217	-142.9780
59.000000	103.321640	-143.4428
60.000000	103.323006	-143.9436
60.799999	103.368225	-144.4051
61.500000	103.429466	-144.8752
62.200001	103.487335	-145.3321
63.000000	103.537964	-145.7547
64.000000	103.586899	-146.1913
65.000000	103.629822	-146.6495
66.000000	103.666924	-147.1229
67.000000	103.694839	-147.5860
68.000000	103.714691	-148.0564
69.000000	103.733147	-148.5439
70.000000	103.752747	-149.0291
71.000000	103.771271	-149.4862
72.000000	103.787804	-149.9139
73.000000	103.802658	-150.3245
74.000000	103.815727	-150.7231
75.000000	103.827057	-151.1108
76.199997	103.840225	-151.5643
77.500000	103.855705	-152.0439
78.800003	103.869484	-152.5017
80.000000	103.878845	-152.8937
81.199997	103.886513	-153.2665
82.500000	103.893082	-153.6689
83.800003	103.897285	-154.0705
85.000000	103.899979	-154.4309
86.199997	103.902588	-154.7745
87.500000	103.905617	-155.1279
88.500000	103.908043	-155.3843
90.000000	103.911865	-155.7472
91.199997	103.914825	-156.0342
92.500000	103.918236	-156.3496
93.800003	103.922287	-156.6601
95.000000	103.925751	-156.9378
96.199997	103.927673	-157.2086
97.500000	103.927429	-157.4937
98.800003	103.925636	-157.7701
100.000000	103.924019	-158.0199
101.500000	103.923141	-158.3251
103.000000	103.921432	-158.6220
104.400002	103.917061	-158.8926
106.000000	103.910461	-159.1939
107.500000	103.904816	-159.4626
109.000000	103.899261	-159.7141
110.599998	103.892159	-159.9666
112.000000	103.885521	-160.1816
113.800003	103.876938	-160.4654
115.000000	103.870552	-160.6691
117.199997	103.854988	-161.0993
118.000000	103.848152	-161.2709
120.599998	103.830528	-161.7047
122.000000	103.825020	-161.7925
124.099998	103.812096	-161.8705
125.000000	103.804459	-161.9226
126.500000	103.791237	-162.0388
128.000000	103.778435	-162.1737
131.500000	103.749458	-162.4895
132.000000	103.745392	-162.5327
134.000000	103.729057	-162.7010
136.000000	103.712044	-162.8605
138.000000	103.694550	-163.0089
140.000000	103.677170	-163.1463
143.000000	103.651352	-163.3361
145.000000	103.633499	-163.4537
147.500000	103.609863	-163.5901
150.000000	103.584702	-163.7139
152.500000	103.558937	-163.8264
155.000000	103.533867	-163.9297
157.500000	103.509224	-164.0248
160.000000	103.483597	-164.1086
162.500000	103.456291	-164.1715
165.000000	103.427399	-164.2085
167.500000	103.398300	-164.2299
170.000000	103.370415	-164.2412
172.500000	103.344193	-164.2357
175.000000	103.319359	-164.2091
177.500000	103.295349	-164.1643
180.000000	103.271622	-164.1192
182.500000	103.248245	-164.0860
185.000000	103.225838	-164.0509
187.500000	103.204231	-164.0044
190.000000	103.183250	-163.9505
192.500000	103.162819	-163.8988
195.000000	103.142838	-163.8527
197.500000	103.123337	-163.8069
200.000000	103.103798	-163.7585
203.000000	103.079315	-163.6971
206.000000	103.053268	-163.6263
209.000000	103.026031	-163.5426
212.000000	102.998314	-163.4512
214.000000	102.979660	-163.3880
218.000000	102.941620	-163.2554
220.000000	102.922157	-163.1841
224.000000	102.882843	-163.0290
227.000000	102.853058	-162.9031
230.000000	102.822571	-162.7702
233.000000	102.790749	-162.6324
236.000000	102.757446	-162.4901
240.000000	102.715714	-162.2803
243.000000	102.690651	-162.0983
247.000000	102.660210	-161.8347
250.000000	102.634773	-161.6295
254.000000	102.597015	-161.3414
258.000000	102.557014	-161.0288
262.000000	102.516182	-160.6883
265.000000	102.485321	-160.4073
269.000000	102.445557	-159.9778
272.000000	102.419525	-159.6046
276.000000	102.395851	-159.0493
280.000000	102.391579	-158.4771
285.000000	102.414764	-157.8658
290.000000	102.451836	-157.4868
295.000000	102.476685	-157.3154
300.000000	102.476616	-157.2087
304.000000	102.459900	-157.0896
307.000000	102.441429	-156.9698
311.000000	102.413544	-156.7733
315.000000	102.384811	-156.5421
320.000000	102.349747	-156.2163
325.000000	102.316284	-155.8606
330.000000	102.284027	-155.4818
335.000000	102.252914	-155.0864
340.000000	102.223328	-154.6798
345.000000	102.195328	-154.2656
350.000000	102.168785	-153.8450
355.000000	102.143379	-153.4191
360.000000	102.118584	-152.9888
365.000000	102.094299	-152.5533
370.000000	102.070679	-152.1105
375.000000	102.047874	-151.6603
382.000000	102.017319	-151.0236
387.000000	101.996605	-150.5667
395.000000	101.965286	-149.8329
400.000000	101.946419	-149.3720
406.000000	101.924416	-148.8140
412.000000	101.903336	-148.2503
418.000000	101.882690	-147.6820
425.000000	101.858345	-147.0124
431.000000	101.837952	-146.4311
437.000000	101.819054	-145.8453
444.000000	101.799072	-145.1619
450.000000	101.783249	-144.5788
455.000000	101.770599	-144.0953
462.000000	101.753181	-143.4219
468.000000	101.738388	-142.8462
475.000000	101.721352	-142.1722
482.000000	101.704102	-141.4883
487.000000	101.691368	-140.9905
494.000000	101.673523	-140.2828
500.000000	101.659019	-139.6695
508.000000	101.641594	-138.8461
515.000000	101.628540	-138.1227
522.000000	101.617752	-137.3996
530.000000	101.608025	-136.5790
538.000000	101.600479	-135.7716
545.000000	101.594902	-135.0785
552.000000	101.589203	-134.3933
560.000000	101.581573	-133.6107
570.000000	101.570160	-132.6254
580.000000	101.557457	-131.6322
590.000000	101.545113	-130.6308
600.000000	101.533867	-129.6201
608.000000	101.525337	-128.8051
615.000000	101.518211	-128.0878
622.000000	101.511536	-127.3675
630.000000	101.504509	-126.5410
640.000000	101.496811	-125.5021
650.000000	101.490509	-124.4573
660.000000	101.485550	-123.4092
670.000000	101.481880	-122.3604
680.000000	101.479401	-121.3084
690.000000	101.477646	-120.2512
700.000000	101.476700	-119.1901
710.000000	101.477142	-118.1249
720.000000	101.479332	-117.0540
730.000000	101.482971	-115.9777
740.000000	101.487747	-114.8987
750.000000	101.493874	-113.8182
762.000000	101.503448	-112.5168
775.000000	101.516495	-111.1003
788.000000	101.531929	-109.6814
800.000000	101.548416	-108.3698
812.000000	101.567444	-107.0559
825.000000	101.590935	-105.6303
838.000000	101.617645	-104.2023
850.000000	101.645683	-102.8827
862.000000	101.676933	-101.5644
875.000000	101.714172	-100.1404
885.000000	101.745178	-99.0484
900.000000	101.795166	-97.4184
912.000000	101.838097	-96.1256
925.000000	101.888229	-94.7366
938.000000	101.942497	-93.3592
950.000000	101.995895	-92.0995
962.000000	102.052017	-90.8528
975.000000	102.115608	-89.5198
988.000000	102.182205	-88.2079
1000.000000	102.246445	-87.0169
1015.000000	102.329987	-85.5577
1030.000000	102.416138	-84.1349
1044.000000	102.498314	-82.8408
1060.000000	102.594070	-81.4006
1075.000000	102.685349	-80.0888
1090.000000	102.777565	-78.8168
1106.000000	102.875969	-77.5042
1120.000000	102.961281	-76.3913
1138.000000	103.068893	-75.0056
1150.000000	103.138947	-74.1079
1172.000000	103.263634	-72.5130
1180.000000	103.307701	-71.9488
1206.000000	103.445541	-70.1652
1220.000000	103.516014	-69.2313
1241.000000	103.616302	-67.8628
1250.000000	103.657249	-67.2869
1265.000000	103.722855	-66.3368
1280.000000	103.785149	-65.3957
1315.000000	103.918625	-63.2329
1320.000000	103.936447	-62.9272
1340.000000	104.004837	-61.7085
1360.000000	104.068474	-60.4936
1380.000000	104.127457	-59.2808
1400.000000	104.182076	-58.0677
1430.000000	104.256874	-56.2417
1450.000000	104.302521	-55.0183
1475.000000	104.355438	-53.4803
1500.000000	104.404472	-51.9349
1525.000000	104.450150	-50.3851
1550.000000	104.492943	-48.8282
1575.000000	104.533203	-47.2618
1600.000000	104.570976	-45.6878
1625.000000	104.606392	-44.1067
1650.000000	104.639854	-42.5194
1675.000000	104.671722	-40.9277
1700.000000	104.702126	-39.3307
1725.000000	104.731178	-37.7288
1750.000000	104.758987	-36.1241
1775.000000	104.785492	-34.5165
1800.000000	104.810616	-32.9050
1825.000000	104.834427	-31.2897
1850.000000	104.857033	-29.6716
1875.000000	104.878502	-28.0520
1900.000000	104.898888	-26.4311
1925.000000	104.918167	-24.8087
1950.000000	104.936287	-23.1842
1975.000000	104.953140	-21.5563
2000.000000	104.968758	-19.9246
2030.000000	104.986023	-17.9618
2060.000000	105.001724	-15.9943
2090.000000	105.015793	-14.0224
2120.000000	105.028358	-12.0470
2140.000000	105.036072	-10.7280
2180.000000	105.050018	-8.0827
2200.000000	105.056137	-6.7558
2240.000000	105.066422	-4.0944
2270.000000	105.072533	-2.0914
2300.000000	105.077484	-0.0817
2330.000000	105.081383	1.9356
2360.000000	105.084251	3.9604
2400.000000	105.086746	6.6713
2430.000000	105.087997	8.7132
2470.000000	105.089119	11.4484
2500.000000	105.089615	13.5092
2540.000000	105.089981	16.2679
2580.000000	105.089989	19.0382
2620.000000	105.089493	21.8211
2650.000000	105.088867	23.9169
2690.000000	105.088013	26.7217
2720.000000	105.087479	28.8323
2760.000000	105.086868	31.6552
2800.000000	105.086380	34.4874
2850.000000	105.086319	38.0396
2900.000000	105.086967	41.6075
2950.000000	105.088127	45.1935
3000.000000	105.090263	48.7953
3040.000000	105.093147	51.6852
3070.000000	105.095963	53.8570
3110.000000	105.100365	56.7593
3150.000000	105.105232	59.6732
3200.000000	105.112206	63.3435
3250.000000	105.122330	67.0586
3300.000000	105.139961	70.8213
3350.000000	105.170090	74.6126
3400.000000	105.215691	78.3931
3450.000000	105.275352	82.1158
3500.000000	105.343719	85.7479
3550.000000	105.414246	89.2820
3600.000000	105.481995	92.7333
3650.000000	105.544846	96.1263
3700.000000	105.602753	99.4813
3750.000000	105.656830	102.8101
3820.000000	105.728424	107.4345
3870.000000	105.777847	110.7092
3950.000000	105.854736	115.8870
4000.000000	105.900925	119.0786
4060.000000	105.953545	122.8566
4120.000000	106.001755	126.5702
4180.000000	106.043152	130.2113
4250.000000	106.077072	134.3650
4310.000000	106.087440	137.8659
4370.000000	106.077072	141.3670
4440.000000	106.044540	145.5381
4500.000000	106.011581	149.2101
4550.000000	105.987579	152.3041
4620.000000	105.960220	156.6054
4680.000000	105.936432	160.2092
4750.000000	105.896667	164.2931
4820.000000	105.831131	168.2634
4870.000000	105.761688	171.0536
4940.000000	105.623352	174.9569
5000.000000	105.458092	178.3960
5080.000000	105.164139	-176.6188
5150.000000	104.857407	-171.5714
5220.000000	104.562881	-165.7078
5300.000000	104.337654	-158.2540
5380.000000	104.279617	-150.6931
5450.000000	104.328781	-144.4669
5520.000000	104.412910	-138.7107
5600.000000	104.504990	-132.5669
5700.000000	104.589699	-125.2194
5800.000000	104.647690	-117.9715
5900.000000	104.697708	-110.6957
6000.000000	104.757233	-103.3731
6080.000000	104.820404	-97.4988
6150.000000	104.891052	-92.3648
6220.000000	104.978951	-87.2539
6300.000000	105.104294	-81.4663
6400.000000	105.305542	-74.3687
6500.000000	105.565872	-67.5310
6600.000000	105.893005	-61.1525
6700.000000	106.278046	-55.5745
6800.000000	106.666748	-51.2650
6900.000000	106.935043	-48.5251
7000.000000	106.918121	-46.8008
7100.000000	106.530243	-44.3310
7200.000000	105.891930	-39.3189
7300.000000	105.305603	-31.4182
7400.000000	105.101807	-21.8356
7500.000000	105.392883	-12.6425
7620.000000	106.114975	-4.3527
7750.000000	106.903542	0.5554
7880.000000	107.423904	1.9867
8000.000000	107.557716	1.3218
8120.000000	107.318245	-0.0829
8250.000000	106.644028	-1.1549
8380.000000	105.579086	-0.5897
8500.000000	104.285736	2.4801
8620.000000	102.757736	9.2850
8750.000000	101.125572	21.3140
8850.000000	100.265366	31.9285
9000.000000	99.757935	44.5215
9120.000000	99.451271	50.9343
9250.000000	98.832367	56.8898
9380.000000	97.939919	63.8238
9500.000000	96.976898	71.6194
9620.000000	95.959961	80.7695
9750.000000	94.873978	92.0611
9880.000000	93.874512	104.4437
10000.000000	93.037247	116.7439
10150.000000	92.103699	134.1816
10300.000000	91.619873	154.6517
10440.000000	92.029488	174.3580
10600.000000	93.260880	-166.8772
10750.000000	94.448624	-155.0438
10900.000000	95.216354	-147.9373
11060.000000	95.411522	-142.2820
11200.000000	95.162361	-136.0294
11380.000000	94.651512	-124.4998
11500.000000	94.404022	-115.0768
11720.000000	94.375374	-96.3303
11800.000000	94.498329	-89.4435
12060.000000	95.275711	-67.7435
12200.000000	95.882858	-56.7289
12410.000000	96.977203	-41.3981
12500.000000	97.490555	-35.3563
12650.000000	98.378563	-25.9290
12800.000000	99.338844	-16.9540
13150.000000	101.905251	0.5596
13200.000000	102.252975	2.3258
13400.000000	103.546753	8.2499
13600.000000	104.899391	14.0549
13800.000000	106.534225	19.3950
14000.000000	108.084969	20.0914
14300.000000	109.259270	10.8317
14500.000000	109.242355	2.6904
14750.000000	108.625259	-5.6603
15000.000000	107.435608	-9.6923
15250.000000	105.785797	-5.4675
15500.000000	104.692368	4.0154
15750.000000	104.785767	10.0944
16000.000000	105.379883	10.5220
16250.000000	106.040627	6.5156
16500.000000	106.574692	-1.6683
16750.000000	106.815254	-13.5201
17000.000000	106.737930	-27.9949
17250.000000	106.386246	-44.6527
17500.000000	105.748886	-63.4254
17750.000000	104.779358	-83.8336
18000.000000	103.421494	-104.6691
18250.000000	101.601318	-123.6429
18500.000000	99.415771	-139.6485
18750.000000	97.329582	-156.1213
19000.000000	95.810486	-178.2943
19250.000000	94.665764	152.4726
19500.000000	93.385414	120.3442
19750.000000	91.895432	92.3997
